#Wavelength(AA) Transmission
39400.000000 0.000000
39550.000000 0.000000
39700.000000 0.014828
39850.000000 0.019512
40000.000000 0.029445
40150.000000 0.049776
40300.000000 0.089229
40450.000000 0.154935
40600.000000 0.261503
40750.000000 0.403606
40900.000000 0.563689
41050.000000 0.717212
41200.000000 0.838063
41350.000000 0.923507
41500.000000 0.970137
41650.000000 0.993354
41800.000000 1.000000
41950.000000 0.996218
42100.000000 0.986069
42250.000000 0.972472
42400.000000 0.966800
42550.000000 0.966828
42700.000000 0.961461
42850.000000 0.959126
43000.000000 0.964965
43150.000000 0.972917
43300.000000 0.978061
43450.000000 0.978840
43600.000000 0.972973
43750.000000 0.963519
43900.000000 0.949199
44050.000000 0.935630
44200.000000 0.924091
44350.000000 0.914943
44500.000000 0.908075
44650.000000 0.907741
44800.000000 0.916083
44950.000000 0.930347
45100.000000 0.948448
45250.000000 0.965604
45400.000000 0.980480
45550.000000 0.990240
45700.000000 0.995412
45850.000000 0.995551
46000.000000 0.990073
46150.000000 0.980925
46300.000000 0.968719
46450.000000 0.954955
46600.000000 0.941692
46750.000000 0.932989
46900.000000 0.927594
47050.000000 0.925703
47200.000000 0.929179
47350.000000 0.936965
47500.000000 0.946780
47650.000000 0.956873
47800.000000 0.962879
47950.000000 0.963575
48100.000000 0.960961
48250.000000 0.957624
48400.000000 0.954538
48550.000000 0.952286
48700.000000 0.950534
48850.000000 0.950284
49000.000000 0.950033
49150.000000 0.948949
49300.000000 0.947364
49450.000000 0.942915
49600.000000 0.936687
49750.000000 0.928234
49900.000000 0.917501
50050.000000 0.902875
50200.000000 0.886220
50350.000000 0.868202
50500.000000 0.850184
50650.000000 0.832193
50800.000000 0.815482
50950.000000 0.799411
51100.000000 0.780781
51250.000000 0.757257
51400.000000 0.723807
51550.000000 0.675064
51700.000000 0.610277
51850.000000 0.529610
52000.000000 0.436578
52150.000000 0.342252
52300.000000 0.254295
52450.000000 0.178793
52600.000000 0.120893
52750.000000 0.077837
52900.000000 0.048703
53050.000000 0.030508
53200.000000 0.018655
53350.000000 0.011064
53500.000000 0.007373
53650.000000 0.000000
53800.000000 0.000000
